# Longitud_de_onda(nm),Intensidad_normalizada
2.650000e+02,1.128627e-02
2.660000e+02,1.194067e-02
2.670000e+02,1.144987e-02
2.680000e+02,1.079547e-02
2.690000e+02,1.030469e-02
2.700000e+02,9.159555e-03
2.710000e+02,1.144987e-02
2.720000e+02,9.323144e-03
2.730000e+02,8.341630e-03
2.740000e+02,1.014110e-02
2.750000e+02,7.032989e-03
2.760000e+02,8.832379e-03
2.770000e+02,8.668790e-03
2.780000e+02,7.850882e-03
2.790000e+02,9.486732e-03
2.800000e+02,1.014110e-02
2.810000e+02,9.159555e-03
2.820000e+02,9.650320e-03
2.830000e+02,8.505219e-03
2.840000e+02,1.030469e-02
2.850000e+02,1.112268e-02
2.860000e+02,1.030469e-02
2.870000e+02,9.486732e-03
2.880000e+02,1.079547e-02
2.890000e+02,1.226788e-02
2.900000e+02,1.357675e-02
2.910000e+02,2.012187e-02
2.920000e+02,1.946739e-02
2.930000e+02,2.044911e-02
2.940000e+02,2.846891e-02
2.950000e+02,3.911058e-02
2.960000e+02,5.876652e-02
2.970000e+02,7.089377e-02
2.980000e+02,1.015610e-01
2.990000e+02,1.294668e-01
3.000000e+02,1.582195e-01
3.010000e+02,1.927572e-01
3.020000e+02,2.298054e-01
3.030000e+02,2.622793e-01
3.040000e+02,3.076680e-01
3.050000e+02,3.514687e-01
3.060000e+02,3.892022e-01
3.070000e+02,4.465521e-01
3.080000e+02,4.589958e-01
3.090000e+02,5.277820e-01
3.100000e+02,5.840526e-01
3.110000e+02,6.345814e-01
3.120000e+02,6.492705e-01
3.130000e+02,6.858591e-01
3.140000e+02,6.980640e-01
3.150000e+02,7.537998e-01
3.160000e+02,7.616742e-01
3.170000e+02,7.941989e-01
3.180000e+02,8.341450e-01
3.190000e+02,8.502716e-01
3.200000e+02,8.889421e-01
3.210000e+02,8.778411e-01
3.220000e+02,9.180603e-01
3.230000e+02,9.367561e-01
3.240000e+02,9.343979e-01
3.250000e+02,9.824473e-01
3.260000e+02,9.684467e-01
3.270000e+02,9.689521e-01
3.280000e+02,9.628815e-01
3.290000e+02,9.670975e-01
3.300000e+02,1.000000e+00
3.310000e+02,9.633885e-01
3.320000e+02,9.861597e-01
3.330000e+02,9.844736e-01
3.340000e+02,9.748558e-01
3.350000e+02,9.893667e-01
3.360000e+02,9.601847e-01
3.370000e+02,9.531035e-01
3.380000e+02,9.192378e-01
3.390000e+02,9.278269e-01
3.400000e+02,9.274900e-01
3.410000e+02,9.000464e-01
3.420000e+02,8.849043e-01
3.430000e+02,8.679192e-01
3.440000e+02,8.596817e-01
3.450000e+02,8.255805e-01
3.460000e+02,8.304507e-01
3.470000e+02,7.985605e-01
3.480000e+02,7.953731e-01
3.490000e+02,7.918505e-01
3.500000e+02,7.782669e-01
3.510000e+02,7.532978e-01
3.520000e+02,7.459271e-01
3.530000e+02,6.935487e-01
3.540000e+02,7.097718e-01
3.550000e+02,6.798408e-01
3.560000e+02,6.539460e-01
3.570000e+02,6.008857e-01
3.580000e+02,5.970524e-01
3.590000e+02,5.962183e-01
3.600000e+02,5.569035e-01
3.610000e+02,5.344365e-01
3.620000e+02,5.244557e-01
3.630000e+02,4.910446e-01
3.640000e+02,5.026771e-01
3.650000e+02,4.704501e-01
3.660000e+02,4.563416e-01
3.670000e+02,4.452242e-01
3.680000e+02,4.319562e-01
3.690000e+02,3.981461e-01
3.700000e+02,3.895325e-01
3.710000e+02,3.800947e-01
3.720000e+02,3.600693e-01
3.730000e+02,3.615591e-01
3.740000e+02,3.329496e-01
3.750000e+02,3.172498e-01
3.760000e+02,3.117974e-01
3.770000e+02,2.952832e-01
3.780000e+02,2.883491e-01
3.790000e+02,2.791075e-01
3.800000e+02,2.703631e-01
3.810000e+02,2.652492e-01
3.820000e+02,2.609612e-01
3.830000e+02,2.522200e-01
3.840000e+02,2.451323e-01
3.850000e+02,2.359021e-01
3.860000e+02,2.271707e-01
3.870000e+02,2.240406e-01
3.880000e+02,2.121824e-01
3.890000e+02,2.059254e-01
3.900000e+02,2.019742e-01
3.910000e+02,2.003290e-01
3.920000e+02,1.878216e-01
3.930000e+02,1.891381e-01
3.940000e+02,1.860112e-01
3.950000e+02,1.702215e-01
3.960000e+02,1.787729e-01
3.970000e+02,1.575619e-01
3.980000e+02,1.634800e-01
3.990000e+02,1.549320e-01
4.000000e+02,1.509878e-01
4.010000e+02,1.467152e-01
4.020000e+02,1.404719e-01
4.030000e+02,1.304522e-01
4.040000e+02,1.281530e-01
4.050000e+02,1.366935e-01
4.060000e+02,1.309449e-01
4.070000e+02,1.260183e-01
4.080000e+02,1.245404e-01
4.090000e+02,1.178089e-01
4.100000e+02,1.135410e-01
4.110000e+02,1.115714e-01
4.120000e+02,1.038582e-01
4.130000e+02,1.040222e-01
4.140000e+02,1.038582e-01
4.150000e+02,9.992036e-02
4.160000e+02,8.794569e-02
4.170000e+02,9.188208e-02
4.180000e+02,9.598299e-02
4.190000e+02,7.876263e-02
4.200000e+02,8.466574e-02
4.210000e+02,8.269787e-02
4.220000e+02,8.892970e-02
4.230000e+02,7.613946e-02
4.240000e+02,7.564770e-02
4.250000e+02,7.712315e-02
4.260000e+02,6.941865e-02
4.270000e+02,7.859876e-02
4.280000e+02,7.400838e-02
4.290000e+02,6.991025e-02
4.300000e+02,6.466571e-02
4.310000e+02,6.450184e-02
4.320000e+02,6.024115e-02
4.330000e+02,6.187982e-02
4.340000e+02,5.565339e-02
4.350000e+02,5.761946e-02
4.360000e+02,5.188544e-02
4.370000e+02,5.745575e-02
4.380000e+02,5.254075e-02
4.390000e+02,4.860943e-02
4.400000e+02,5.204931e-02
4.410000e+02,4.762655e-02
4.420000e+02,4.713528e-02
4.430000e+02,4.828186e-02
4.440000e+02,4.484230e-02
4.450000e+02,4.893699e-02
4.460000e+02,4.369589e-02
4.470000e+02,4.058439e-02
4.480000e+02,3.829190e-02
4.490000e+02,3.992942e-02
4.500000e+02,3.829190e-02
4.510000e+02,4.238578e-02
4.520000e+02,3.665454e-02
4.530000e+02,3.468978e-02
4.540000e+02,3.534476e-02
4.550000e+02,3.419867e-02
4.560000e+02,3.583587e-02
4.570000e+02,3.108816e-02
4.580000e+02,3.338000e-02
4.590000e+02,2.846891e-02
4.600000e+02,2.765056e-02
4.610000e+02,2.928743e-02
4.620000e+02,2.192211e-02
4.630000e+02,3.026964e-02
4.640000e+02,2.535905e-02
4.650000e+02,2.519535e-02
4.660000e+02,2.928743e-02
4.670000e+02,2.470424e-02
4.680000e+02,2.928743e-02
4.690000e+02,2.977854e-02
4.700000e+02,2.830521e-02
4.710000e+02,2.454070e-02
4.720000e+02,2.634110e-02
4.730000e+02,2.388589e-02
4.740000e+02,2.650481e-02
4.750000e+02,2.519535e-02
4.760000e+02,2.012187e-02
4.770000e+02,2.241305e-02
4.780000e+02,2.274030e-02
4.790000e+02,2.241305e-02
4.800000e+02,2.208565e-02
4.810000e+02,2.175841e-02
4.820000e+02,2.257659e-02
4.830000e+02,1.750361e-02
4.840000e+02,1.913998e-02
4.850000e+02,2.323124e-02
4.860000e+02,2.044911e-02
4.870000e+02,1.815825e-02
4.880000e+02,2.224935e-02
4.890000e+02,2.012187e-02
4.900000e+02,1.848550e-02
4.910000e+02,2.061281e-02
4.920000e+02,1.635834e-02
4.930000e+02,1.554014e-02
4.940000e+02,1.946739e-02
4.950000e+02,2.028557e-02
4.960000e+02,2.077652e-02
4.970000e+02,1.635834e-02
4.980000e+02,1.766731e-02
4.990000e+02,1.848550e-02
5.000000e+02,1.537652e-02
